Surface Pressure: 1080.000 
Secant Angle :  0.000 
CO2 ppm : 400.000 
 
Index   Water        Fixed       Ozone    Temperature 
  1   1.4452e+15   9.5563e+16   1.6026e+14   212.79 
  2   3.0423e+15   1.9320e+17   3.1844e+14   224.45 
  3   5.4921e+15   3.3380e+17   6.6676e+14   235.39 
  4   9.1473e+15   5.2045e+17   1.6085e+15   247.18 
  5   1.4004e+16   7.5594e+17   3.1179e+15   255.00 
  6   2.0078e+16   1.0454e+18   6.7131e+15   261.82 
  7   2.7452e+16   1.3896e+18   1.2445e+16   267.93 
  8   3.5774e+16   1.7902e+18   2.0411e+16   270.35 
  9   4.4991e+16   2.2515e+18   3.0964e+16   270.16 
 10   5.5384e+16   2.7716e+18   4.4124e+16   269.48 
 11   6.7056e+16   3.3556e+18   6.0497e+16   268.23 
 12   7.9970e+16   4.0019e+18   8.2053e+16   266.82 
 13   9.4161e+16   4.7120e+18   1.0507e+17   262.23 
 14   1.0966e+17   5.4877e+18   1.3082e+17   257.09 
 15   1.2647e+17   6.3290e+18   1.6190e+17   253.02 
 16   1.4463e+17   7.2374e+18   1.9940e+17   249.31 
 17   1.6407e+17   8.2106e+18   2.3739e+17   246.64 
 18   1.8490e+17   9.2526e+18   2.7114e+17   245.19 
 19   2.0704e+17   1.0361e+19   3.0676e+17   243.18 
 20   2.3053e+17   1.1536e+19   3.4408e+17   240.55 
 21   2.5536e+17   1.2779e+19   3.8193e+17   237.99 
 22   2.8154e+17   1.4089e+19   4.1544e+17   235.38 
 23   3.0905e+17   1.5466e+19   4.4953e+17   232.86 
 24   3.3790e+17   1.6909e+19   4.8396e+17   230.44 
 25   3.6807e+17   1.8419e+19   5.1725e+17   228.13 
 26   3.9956e+17   1.9995e+19   5.4977e+17   225.97 
 27   4.3236e+17   2.1636e+19   5.7000e+17   224.51 
 28   4.6808e+17   2.3342e+19   5.8503e+17   223.27 
 29   5.1910e+17   2.5113e+19   5.9330e+17   222.07 
 30   5.7314e+17   2.6947e+19   5.9731e+17   221.05 
 31   6.2116e+17   2.8845e+19   5.9667e+17   220.43 
 32   6.7071e+17   3.0804e+19   5.9292e+17   219.86 
 33   7.2234e+17   3.2825e+19   5.8613e+17   219.30 
 34   7.7602e+17   3.4908e+19   5.7618e+17   218.76 
 35   8.3258e+17   3.7049e+19   5.6426e+17   218.20 
 36   9.0212e+17   3.9250e+19   5.6505e+17   217.29 
 37   9.7805e+17   4.1507e+19   5.6867e+17   216.28 
 38   1.0603e+18   4.3824e+19   5.6720e+17   215.31 
 39   1.1501e+18   4.6195e+19   5.6233e+17   214.34 
 40   1.2903e+18   4.8621e+19   5.6072e+17   212.97 
 41   1.4556e+18   5.1101e+19   5.5945e+17   211.49 
 42   1.6811e+18   5.3635e+19   5.5512e+17   210.04 
 43   2.0644e+18   5.6219e+19   5.4479e+17   208.63 
 44   2.5598e+18   5.8855e+19   5.3300e+17   207.42 
 45   3.7391e+18   6.1540e+19   5.2572e+17   207.54 
 46   5.1113e+18   6.4273e+19   5.1854e+17   207.96 
 47   6.2952e+18   6.7052e+19   5.1279e+17   208.49 
 48   7.4652e+18   6.9877e+19   5.0654e+17   209.04 
 49   8.8321e+18   7.2749e+19   4.9346e+17   209.73 
 50   1.0520e+19   7.5661e+19   4.6968e+17   210.68 
 51   1.3535e+19   7.8615e+19   4.5601e+17   212.35 
 52   1.7456e+19   8.1612e+19   4.4846e+17   214.42 
 53   2.1564e+19   8.4645e+19   4.3980e+17   216.45 
 54   2.5858e+19   8.7718e+19   4.3005e+17   218.43 
 55   3.0411e+19   9.0827e+19   4.1909e+17   220.38 
 56   4.4614e+19   9.3969e+19   3.9266e+17   222.42 
 57   6.6280e+19   9.7143e+19   3.5407e+17   224.52 
 58   8.8894e+19   1.0035e+20   3.1322e+17   226.58 
 59   1.1245e+20   1.0359e+20   2.7011e+17   228.60 
 60   1.3841e+20   1.0685e+20   2.3245e+17   230.99 
 61   1.6851e+20   1.1015e+20   2.0942e+17   234.19 
 62   1.9983e+20   1.1347e+20   1.8576e+17   237.36 
 63   2.3226e+20   1.1682e+20   1.6093e+17   240.47 
 64   3.1391e+20   1.2017e+20   1.4480e+17   243.20 
 65   4.4728e+20   1.2354e+20   1.3789e+17   245.57 
 66   5.8540e+20   1.2693e+20   1.3060e+17   247.90 
 67   7.3958e+20   1.3034e+20   1.2262e+17   250.25 
 68   9.4901e+20   1.3375e+20   1.1298e+17   252.81 
 69   1.1713e+21   1.3717e+20   1.0274e+17   255.36 
 70   1.3968e+21   1.4061e+20   9.2382e+16   257.80 
 71   1.6022e+21   1.4407e+20   8.3921e+16   259.62 
 72   1.8285e+21   1.4754e+20   7.6604e+16   261.29 
 73   2.1262e+21   1.5100e+20   7.2128e+16   262.90 
 74   2.4356e+21   1.5447e+20   6.7611e+16   264.46 
 75   2.7007e+21   1.5796e+20   5.9286e+16   265.50 
 76   2.9870e+21   1.6145e+20   5.1882e+16   266.58 
 77   3.3658e+21   1.6493e+20   5.0484e+16   268.27 
 78   3.7556e+21   1.6840e+20   4.9180e+16   269.96 
 79   4.1615e+21   1.7188e+20   4.7832e+16   271.64 
 80   4.7138e+21   1.7532e+20   4.6786e+16   273.63 
 81   5.3318e+21   1.7875e+20   4.5829e+16   275.73 
 82   5.9601e+21   1.8218e+20   4.4766e+16   277.68 
 83   6.5968e+21   1.8560e+20   4.3565e+16   279.45 
 84   7.2179e+21   1.8902e+20   4.1892e+16   281.15 
 85   7.7343e+21   1.9247e+20   3.8624e+16   282.65 
 86   8.1970e+21   1.9592e+20   3.7857e+16   283.71 
 87   8.6483e+21   1.9937e+20   3.8079e+16   284.61 
 88   9.1055e+21   2.0280e+20   3.8288e+16   285.49 
 89   9.9995e+21   2.0612e+20   3.8420e+16   286.92 
 90   1.1518e+22   2.0928e+20   3.8446e+16   289.13 
 91   1.3072e+22   2.1241e+20   3.8455e+16   291.32 
 92   1.4848e+22   2.1548e+20   3.8416e+16   293.51 
 93   1.6787e+22   2.1849e+20   3.8340e+16   295.70 
 94   1.8845e+22   2.2145e+20   3.8208e+16   298.08 
 95   2.1628e+22   2.2422e+20   3.7777e+16   302.10 
 96   2.4613e+22   2.2691e+20   3.7754e+16   305.26 
 97   2.7648e+22   2.2958e+20   3.7882e+16   308.00 
 98   3.0731e+22   2.3222e+20   3.8000e+16   310.70 
 99   3.3859e+22   2.3482e+20   3.8106e+16   313.36 
100   3.7032e+22   2.3738e+20   3.8200e+16   315.99 
 
Index  Efreq        Emis 
  1   769.2308     0.9767   
  2   800.0000     0.9829   
  3   833.3333     0.9889   
  4   869.5652     0.9919   
  5   909.0909     0.9925   
  6   952.3810     0.9913   
  7   1000.0000     0.9891   
  8   1041.6666     0.9875   
  9   1086.9565     0.9863   
 10   1136.3636     0.9851   
 11   1190.4762     0.9840   
 12   1250.0000     0.9831   
 13   2439.0244     0.9776   
 14   2500.0000     0.9770   
 15   2564.1025     0.9764   
 16   2631.5789     0.9756   
 17   2702.7026     0.9745   
 18   2777.7778     0.9732   
 19   2857.1428     0.9715   
 
Chan ID   Freq    BT(K)
2212   647.5000   211.7844 
2213   648.1250   210.9345 
2214   648.7500   217.4818 
2215   649.3750   214.7477 
  1   650.0000   211.1263 
  2   650.6250   210.4879 
  3   651.2500   207.8399 
  4   651.8750   209.5693 
  5   652.5000   208.2632 
  6   653.1250   208.6293 
  7   653.7500   209.1234 
  8   654.3750   207.5369 
  9   655.0000   209.6550 
 10   655.6250   207.9703 
 11   656.2500   209.1341 
 12   656.8750   209.0593 
 13   657.5000   208.0198 
 14   658.1250   209.5525 
 15   658.7500   207.5677 
 16   659.3750   208.7818 
 17   660.0000   208.4827 
 18   660.6250   207.5327 
 19   661.2500   208.9174 
 20   661.8750   209.5473 
 21   662.5000   216.2071 
 22   663.1250   215.4854 
 23   663.7500   210.7982 
 24   664.3750   210.6285 
 25   665.0000   210.8574 
 26   665.6250   209.0208 
 27   666.2500   206.8744 
 28   666.8750   215.4124 
 29   667.5000   236.5578 
 30   668.1250   242.9530 
 31   668.7500   232.5957 
 32   669.3750   222.3873 
 33   670.0000   215.4588 
 34   670.6250   210.7594 
 35   671.2500   211.4074 
 36   671.8750   208.9445 
 37   672.5000   209.6391 
 38   673.1250   210.3718 
 39   673.7500   208.0991 
 40   674.3750   210.6286 
 41   675.0000   208.5924 
 42   675.6250   209.2967 
 43   676.2500   210.3502 
 44   676.8750   207.9387 
 45   677.5000   210.7176 
 46   678.1250   208.8612 
 47   678.7500   209.3950 
 48   679.3750   210.9415 
 49   680.0000   207.9386 
 50   680.6250   210.5540 
 51   681.2500   209.0047 
 52   681.8750   208.4188 
 53   682.5000   210.3318 
 54   683.1250   207.3524 
 55   683.7500   209.6788 
 56   684.3750   208.7243 
 57   685.0000   207.4753 
 58   685.6250   209.6911 
 59   686.2500   206.9444 
 60   686.8750   208.1042 
 61   687.5000   208.0952 
 62   688.1250   206.7591 
 63   688.7500   209.9852 
 64   689.3750   208.3855 
 65   690.0000   207.8912 
 66   690.6250   208.1633 
 67   691.2500   206.3023 
 68   691.8750   207.8465 
 69   692.5000   207.2877 
 70   693.1250   206.6165 
 71   693.7500   207.6768 
 72   694.3750   207.0971 
 73   695.0000   207.3222 
 74   695.6250   208.2936 
 75   696.2500   207.9498 
 76   696.8750   208.3768 
 77   697.5000   209.9189 
 78   698.1250   209.0464 
 79   698.7500   210.1145 
 80   699.3750   211.6841 
 81   700.0000   210.1808 
 82   700.6250   212.3921 
 83   701.2500   213.0655 
 84   701.8750   212.6646 
 85   702.5000   215.0798 
 86   703.1250   215.1059 
 87   703.7500   217.9673 
 88   704.3750   219.4696 
 89   705.0000   219.0283 
 90   705.6250   221.9765 
 91   706.2500   222.9976 
 92   706.8750   222.7970 
 93   707.5000   225.0311 
 94   708.1250   225.0789 
 95   708.7500   225.6373 
 96   709.3750   227.8000 
 97   710.0000   228.0414 
 98   710.6250   229.0811 
 99   711.2500   230.7962 
100   711.8750   230.0775 
101   712.5000   233.7227 
102   713.1250   233.3157 
103   713.7500   232.8124 
104   714.3750   237.3094 
105   715.0000   234.2315 
106   715.6250   237.3939 
107   716.2500   238.7438 
108   716.8750   235.1610 
109   717.5000   239.4828 
110   718.1250   233.6539 
111   718.7500   222.2729 
112   719.3750   214.5485 
113   720.0000   211.6233 
114   720.6250   216.5161 
115   721.2500   228.0178 
116   721.8750   239.9960 
117   722.5000   244.0701 
118   723.1250   245.2876 
119   723.7500   242.2262 
120   724.3750   245.4210 
121   725.0000   244.6647 
122   725.6250   242.1620 
123   726.2500   245.5426 
124   726.8750   240.7592 
125   727.5000   243.1822 
126   728.1250   242.3410 
127   728.7500   239.2217 
128   729.3750   242.5464 
129   730.0000   237.9520 
130   730.6250   241.2878 
131   731.2500   240.9943 
132   731.8750   239.9155 
133   732.5000   243.5847 
134   733.1250   239.4327 
135   733.7500   243.1805 
136   734.3750   241.5964 
137   735.0000   240.9531 
138   735.6250   244.0119 
139   736.2500   239.7806 
140   736.8750   243.5242 
141   737.5000   241.9676 
142   738.1250   243.4105 
143   738.7500   245.1010 
144   739.3750   242.2374 
145   740.0000   245.4937 
146   740.6250   239.4873 
147   741.2500   234.6358 
148   741.8750   237.9267 
149   742.5000   243.5727 
150   743.1250   247.9767 
151   743.7500   245.4913 
152   744.3750   248.3929 
153   745.0000   247.9290 
154   745.6250   247.8173 
155   746.2500   249.9509 
156   746.8750   247.8718 
157   747.5000   250.5237 
158   748.1250   249.0311 
159   748.7500   249.9682 
160   749.3750   250.6516 
161   750.0000   249.3386 
162   750.6250   250.9209 
163   751.2500   250.1646 
164   751.8750   251.8630 
165   752.5000   251.7782 
166   753.1250   251.6725 
167   753.7500   252.7970 
168   754.3750   251.9397 
169   755.0000   252.9110 
170   755.6250   252.5727 
171   756.2500   252.8880 
172   756.8750   252.8593 
173   757.5000   252.3838 
174   758.1250   253.2450 
175   758.7500   253.2584 
176   759.3750   253.5845 
177   760.0000   253.6169 
178   760.6250   253.6300 
179   761.2500   253.9024 
180   761.8750   253.7341 
181   762.5000   253.8948 
182   763.1250   253.8146 
183   763.7500   253.8678 
184   764.3750   253.8806 
185   765.0000   253.9319 
186   765.6250   254.0829 
187   766.2500   254.1095 
188   766.8750   254.1958 
189   767.5000   254.2623 
190   768.1250   254.2704 
191   768.7500   254.4206 
192   769.3750   254.4941 
193   770.0000   254.6144 
194   770.6250   254.3936 
195   771.2500   254.1394 
196   771.8750   254.1799 
197   772.5000   254.2641 
198   773.1250   254.2358 
199   773.7500   254.2225 
200   774.3750   254.2560 
201   775.0000   254.5600 
202   775.6250   254.7998 
203   776.2500   254.7054 
204   776.8750   254.8187 
205   777.5000   254.5974 
206   778.1250   254.3119 
207   778.7500   254.4550 
208   779.3750   254.6892 
209   780.0000   254.4653 
210   780.6250   254.2943 
211   781.2500   254.2900 
212   781.8750   254.2709 
213   782.5000   254.3005 
214   783.1250   254.3593 
215   783.7500   254.5476 
216   784.3750   254.7995 
217   785.0000   254.6293 
218   785.6250   254.3871 
219   786.2500   254.3385 
220   786.8750   254.3432 
221   787.5000   254.3673 
222   788.1250   254.3618 
223   788.7500   254.3375 
224   789.3750   254.3343 
225   790.0000   254.3382 
226   790.6250   254.2105 
227   791.2500   253.2228 
228   791.8750   252.8806 
229   792.5000   253.9497 
230   793.1250   254.4471 
231   793.7500   254.8129 
232   794.3750   254.6604 
233   795.0000   254.4643 
234   795.6250   254.5331 
235   796.2500   254.5706 
236   796.8750   254.4919 
237   797.5000   254.6616 
238   798.1250   254.5752 
239   798.7500   254.7484 
240   799.3750   254.7447 
241   800.0000   254.3789 
242   800.6250   254.3448 
243   801.2500   254.3317 
244   801.8750   254.3510 
245   802.5000   254.6167 
246   803.1250   255.0393 
247   803.7500   254.9493 
248   804.3750   254.4744 
249   805.0000   254.3684 
250   805.6250   254.4221 
251   806.2500   254.4148 
252   806.8750   254.4063 
253   807.5000   254.5506 
254   808.1250   254.8126 
255   808.7500   254.5889 
256   809.3750   254.3422 
257   810.0000   254.4005 
258   810.6250   254.3954 
259   811.2500   254.3985 
260   811.8750   254.3968 
261   812.5000   254.3947 
262   813.1250   254.4877 
263   813.7500   254.7957 
264   814.3750   254.8905 
265   815.0000   254.6154 
266   815.6250   254.4052 
267   816.2500   254.3981 
268   816.8750   254.3839 
269   817.5000   254.3930 
270   818.1250   254.3927 
271   818.7500   254.3994 
272   819.3750   254.3995 
273   820.0000   254.4074 
274   820.6250   254.4012 
275   821.2500   254.4090 
276   821.8750   254.4132 
277   822.5000   254.4247 
278   823.1250   254.4269 
279   823.7500   254.4397 
280   824.3750   254.4699 
281   825.0000   254.5694 
282   825.6250   254.5332 
283   826.2500   254.4783 
284   826.8750   254.5586 
285   827.5000   254.7887 
286   828.1250   254.7033 
287   828.7500   254.4835 
288   829.3750   254.4484 
289   830.0000   254.4571 
290   830.6250   254.4585 
291   831.2500   254.4652 
292   831.8750   254.4581 
293   832.5000   254.4614 
294   833.1250   254.4543 
295   833.7500   254.4602 
296   834.3750   254.4523 
297   835.0000   254.4640 
298   835.6250   254.4681 
299   836.2500   254.4506 
300   836.8750   254.4337 
301   837.5000   254.4335 
302   838.1250   254.4271 
303   838.7500   254.4379 
304   839.3750   254.6318 
305   840.0000   254.8103 
306   840.6250   254.5393 
307   841.2500   254.4054 
308   841.8750   254.3943 
309   842.5000   254.3585 
310   843.1250   254.3135 
311   843.7500   254.2877 
312   844.3750   254.2591 
313   845.0000   254.2373 
314   845.6250   254.2121 
315   846.2500   254.1960 
316   846.8750   254.1868 
317   847.5000   254.1903 
318   848.1250   254.2036 
319   848.7500   254.2807 
320   849.3750   254.5131 
321   850.0000   254.4362 
322   850.6250   254.2333 
323   851.2500   254.2596 
324   851.8750   254.5851 
325   852.5000   255.0383 
326   853.1250   254.8278 
327   853.7500   254.5439 
328   854.3750   254.7697 
329   855.0000   254.6933 
330   855.6250   254.4284 
331   856.2500   254.4047 
332   856.8750   254.4036 
333   857.5000   254.4149 
334   858.1250   254.4239 
335   858.7500   254.4381 
336   859.3750   254.4197 
337   860.0000   254.4199 
338   860.6250   254.4055 
339   861.2500   254.4050 
340   861.8750   254.3986 
341   862.5000   254.3964 
342   863.1250   254.3876 
343   863.7500   254.3871 
344   864.3750   254.4134 
345   865.0000   254.5465 
346   865.6250   254.5540 
347   866.2500   254.4057 
348   866.8750   254.3596 
349   867.5000   254.3600 
350   868.1250   254.3550 
351   868.7500   254.3473 
352   869.3750   254.3472 
353   870.0000   254.3557 
354   870.6250   254.4827 
355   871.2500   254.6689 
356   871.8750   254.4932 
357   872.5000   254.3566 
358   873.1250   254.3484 
359   873.7500   254.3461 
360   874.3750   254.3452 
361   875.0000   254.3399 
362   875.6250   254.3424 
363   876.2500   254.3461 
364   876.8750   254.3487 
365   877.5000   254.3513 
366   878.1250   254.3725 
367   878.7500   254.2662 
368   879.3750   254.2321 
369   880.0000   254.3394 
370   880.6250   254.3477 
371   881.2500   254.3339 
372   881.8750   254.2953 
373   882.5000   254.2852 
374   883.1250   254.3212 
375   883.7500   254.4059 
376   884.3750   254.3380 
377   885.0000   254.2607 
378   885.6250   254.2549 
379   886.2500   254.3033 
380   886.8750   254.5000 
381   887.5000   254.5185 
382   888.1250   254.3282 
383   888.7500   254.2836 
384   889.3750   254.2487 
385   890.0000   254.2691 
386   890.6250   254.2706 
387   891.2500   254.2817 
388   891.8750   254.2694 
389   892.5000   254.2718 
390   893.1250   254.2779 
391   893.7500   254.2882 
392   894.3750   254.2886 
393   895.0000   254.2745 
394   895.6250   254.2109 
395   896.2500   254.2101 
396   896.8750   254.3071 
397   897.5000   254.3595 
398   898.1250   254.3471 
399   898.7500   254.3470 
400   899.3750   254.3530 
401   900.0000   254.3589 
402   900.6250   254.3618 
403   901.2500   254.3647 
404   901.8750   254.3638 
405   902.5000   254.3641 
406   903.1250   254.3591 
407   903.7500   254.3538 
408   904.3750   254.3483 
409   905.0000   254.3570 
410   905.6250   254.3801 
411   906.2500   254.4153 
412   906.8750   254.3748 
413   907.5000   254.3488 
414   908.1250   254.4211 
415   908.7500   254.6863 
416   909.3750   254.5940 
417   910.0000   254.3417 
418   910.6250   254.2965 
419   911.2500   254.2711 
420   911.8750   254.2589 
421   912.5000   254.2447 
422   913.1250   254.2384 
423   913.7500   254.2412 
424   914.3750   254.2346 
425   915.0000   254.2066 
426   915.6250   254.2040 
427   916.2500   254.2169 
428   916.8750   254.2276 
429   917.5000   254.2331 
430   918.1250   254.2756 
431   918.7500   254.2776 
432   919.3750   254.2319 
433   920.0000   254.2392 
434   920.6250   254.2321 
435   921.2500   254.1345 
436   921.8750   254.2670 
437   922.5000   254.2041 
438   923.1250   254.0348 
439   923.7500   254.2483 
440   924.3750   254.3860 
441   925.0000   254.4561 
442   925.6250   254.3343 
443   926.2500   254.2437 
444   926.8750   254.2226 
445   927.5000   254.2121 
446   928.1250   254.1980 
447   928.7500   254.2120 
448   929.3750   254.2118 
449   930.0000   254.2236 
450   930.6250   254.2527 
451   931.2500   254.2871 
452   931.8750   254.3103 
453   932.5000   254.3417 
454   933.1250   254.3669 
455   933.7500   254.3902 
456   934.3750   254.4101 
457   935.0000   254.4299 
458   935.6250   254.4412 
459   936.2500   254.4513 
460   936.8750   254.4564 
461   937.5000   254.4662 
462   938.1250   254.4639 
463   938.7500   254.4624 
464   939.3750   254.4677 
465   940.0000   254.4669 
466   940.6250   254.4712 
467   941.2500   254.4852 
468   941.8750   254.4630 
469   942.5000   254.4483 
470   943.1250   254.4573 
471   943.7500   254.4445 
472   944.3750   254.4393 
473   945.0000   254.4588 
474   945.6250   254.4220 
475   946.2500   254.4196 
476   946.8750   254.4326 
477   947.5000   254.4725 
478   948.1250   254.6829 
479   948.7500   254.6103 
480   949.3750   254.3761 
481   950.0000   254.3937 
482   950.6250   254.4077 
483   951.2500   254.4101 
484   951.8750   254.4431 
485   952.5000   254.4511 
486   953.1250   254.4778 
487   953.7500   254.5089 
488   954.3750   254.4426 
489   955.0000   254.4967 
490   955.6250   254.4984 
491   956.2500   254.4521 
492   956.8750   254.4447 
493   957.5000   254.4477 
494   958.1250   254.4369 
495   958.7500   254.4660 
496   959.3750   254.4594 
497   960.0000   254.4720 
498   960.6250   254.4593 
499   961.2500   254.4590 
500   961.8750   254.4521 
501   962.5000   254.4564 
502   963.1250   254.4388 
503   963.7500   254.4545 
504   964.3750   254.4376 
505   965.0000   254.4483 
506   965.6250   254.4541 
507   966.2500   254.4573 
508   966.8750   254.4630 
509   967.5000   254.4453 
510   968.1250   254.4207 
511   968.7500   254.4255 
512   969.3750   254.3972 
