Surface Pressure: 1080.000 
Secant Angle :  0.000 
CO2 ppm : 400.000 
 
Index  Water        Fixed    Temperature 
  1   1.4452e+15   9.5563e+16   212.79 
  2   3.0423e+15   1.9320e+17   224.45 
  3   5.4921e+15   3.3380e+17   235.39 
  4   9.1473e+15   5.2045e+17   247.18 
  5   1.4004e+16   7.5594e+17   255.00 
  6   2.0078e+16   1.0454e+18   261.82 
  7   2.7452e+16   1.3896e+18   267.93 
  8   3.5774e+16   1.7902e+18   270.35 
  9   4.4991e+16   2.2515e+18   270.16 
 10   5.5384e+16   2.7716e+18   269.48 
 11   6.7056e+16   3.3556e+18   268.23 
 12   7.9970e+16   4.0019e+18   266.82 
 13   9.4161e+16   4.7120e+18   262.23 
 14   1.0966e+17   5.4877e+18   257.09 
 15   1.2647e+17   6.3290e+18   253.02 
 16   1.4463e+17   7.2374e+18   249.31 
 17   1.6407e+17   8.2106e+18   246.64 
 18   1.8490e+17   9.2526e+18   245.19 
 19   2.0704e+17   1.0361e+19   243.18 
 20   2.3053e+17   1.1536e+19   240.55 
 21   2.5536e+17   1.2779e+19   237.99 
 22   2.8154e+17   1.4089e+19   235.38 
 23   3.0905e+17   1.5466e+19   232.86 
 24   3.3790e+17   1.6909e+19   230.44 
 25   3.6807e+17   1.8419e+19   228.13 
 26   3.9956e+17   1.9995e+19   225.97 
 27   4.3236e+17   2.1636e+19   224.51 
 28   4.6808e+17   2.3342e+19   223.27 
 29   5.1910e+17   2.5113e+19   222.07 
 30   5.7314e+17   2.6947e+19   221.05 
 31   6.2116e+17   2.8845e+19   220.43 
 32   6.7071e+17   3.0804e+19   219.86 
 33   7.2234e+17   3.2825e+19   219.30 
 34   7.7602e+17   3.4908e+19   218.76 
 35   8.3258e+17   3.7049e+19   218.20 
 36   9.0212e+17   3.9250e+19   217.29 
 37   9.7805e+17   4.1507e+19   216.28 
 38   1.0603e+18   4.3824e+19   215.31 
 39   1.1501e+18   4.6195e+19   214.34 
 40   1.2903e+18   4.8621e+19   212.97 
 41   1.4556e+18   5.1101e+19   211.49 
 42   1.6811e+18   5.3635e+19   210.04 
 43   2.0644e+18   5.6219e+19   208.63 
 44   2.5598e+18   5.8855e+19   207.42 
 45   3.7391e+18   6.1540e+19   207.54 
 46   5.1113e+18   6.4273e+19   207.96 
 47   6.2952e+18   6.7052e+19   208.49 
 48   7.4652e+18   6.9877e+19   209.04 
 49   8.8321e+18   7.2749e+19   209.73 
 50   1.0520e+19   7.5661e+19   210.68 
 51   1.3535e+19   7.8615e+19   212.35 
 52   1.7456e+19   8.1612e+19   214.42 
 53   2.1564e+19   8.4645e+19   216.45 
 54   2.5858e+19   8.7718e+19   218.43 
 55   3.0411e+19   9.0827e+19   220.38 
 56   4.4614e+19   9.3969e+19   222.42 
 57   6.6280e+19   9.7143e+19   224.52 
 58   8.8894e+19   1.0035e+20   226.58 
 59   1.1245e+20   1.0359e+20   228.60 
 60   1.3841e+20   1.0685e+20   230.99 
 61   1.6851e+20   1.1015e+20   234.19 
 62   1.9983e+20   1.1347e+20   237.36 
 63   2.3226e+20   1.1682e+20   240.47 
 64   3.1391e+20   1.2017e+20   243.20 
 65   4.4728e+20   1.2354e+20   245.57 
 66   5.8540e+20   1.2693e+20   247.90 
 67   7.3958e+20   1.3034e+20   250.25 
 68   9.4901e+20   1.3375e+20   252.81 
 69   1.1713e+21   1.3717e+20   255.36 
 70   1.3968e+21   1.4061e+20   257.80 
 71   1.6022e+21   1.4407e+20   259.62 
 72   1.8285e+21   1.4754e+20   261.29 
 73   2.1262e+21   1.5100e+20   262.90 
 74   2.4356e+21   1.5447e+20   264.46 
 75   2.7007e+21   1.5796e+20   265.50 
 76   2.9870e+21   1.6145e+20   266.58 
 77   3.3658e+21   1.6493e+20   268.27 
 78   3.7556e+21   1.6840e+20   269.96 
 79   4.1615e+21   1.7188e+20   271.64 
 80   4.7138e+21   1.7532e+20   273.63 
 81   5.3318e+21   1.7875e+20   275.73 
 82   5.9601e+21   1.8218e+20   277.68 
 83   6.5968e+21   1.8560e+20   279.45 
 84   7.2179e+21   1.8902e+20   281.15 
 85   7.7343e+21   1.9247e+20   282.65 
 86   8.1970e+21   1.9592e+20   283.71 
 87   8.6483e+21   1.9937e+20   284.61 
 88   9.1055e+21   2.0280e+20   285.49 
 89   9.9995e+21   2.0612e+20   286.92 
 90   1.1518e+22   2.0928e+20   289.13 
 91   1.3072e+22   2.1241e+20   291.32 
 92   1.4848e+22   2.1548e+20   293.51 
 93   1.6787e+22   2.1849e+20   295.70 
 94   1.8845e+22   2.2145e+20   298.08 
 95   2.1628e+22   2.2422e+20   302.10 
 96   2.4613e+22   2.2691e+20   305.26 
 97   2.7648e+22   2.2958e+20   308.00 
 98   3.0731e+22   2.3222e+20   310.70 
 99   3.3859e+22   2.3482e+20   313.36 
100   3.7032e+22   2.3738e+20   315.99 
 
Index  Efreq        Emis 
  1   769.2308     0.9767   
  2   800.0000     0.9829   
  3   833.3333     0.9889   
  4   869.5652     0.9919   
  5   909.0909     0.9925   
  6   952.3810     0.9913   
  7   1000.0000     0.9891   
  8   1041.6666     0.9875   
  9   1086.9565     0.9863   
 10   1136.3636     0.9851   
 11   1190.4762     0.9840   
 12   1250.0000     0.9831   
 13   2439.0244     0.9776   
 14   2500.0000     0.9770   
 15   2564.1025     0.9764   
 16   2631.5789     0.9756   
 17   2702.7026     0.9745   
 18   2777.7778     0.9732   
 19   2857.1428     0.9715   
 
Chan ID   Freq    BT(K)
2212   647.5000   228.4121 
2213   648.1250   226.5530 
2214   648.7500   233.8741 
2215   649.3750   231.4707 
  1   650.0000   227.6937 
  2   650.6250   226.8602 
  3   651.2500   223.4615 
  4   651.8750   225.9259 
  5   652.5000   224.2407 
  6   653.1250   224.7928 
  7   653.7500   225.6159 
  8   654.3750   223.4499 
  9   655.0000   226.3439 
 10   655.6250   224.2879 
 11   656.2500   225.7038 
 12   656.8750   225.7182 
 13   657.5000   224.1644 
 14   658.1250   226.2676 
 15   658.7500   223.6157 
 16   659.3750   225.2851 
 17   660.0000   224.9496 
 18   660.6250   223.6643 
 19   661.2500   225.6365 
 20   661.8750   225.6348 
 21   662.5000   232.6081 
 22   663.1250   232.3179 
 23   663.7500   227.2862 
 24   664.3750   227.3516 
 25   665.0000   227.4733 
 26   665.6250   225.4362 
 27   666.2500   223.5159 
 28   666.8750   231.3445 
 29   667.5000   248.2340 
 30   668.1250   253.8768 
 31   668.7500   247.5710 
 32   669.3750   240.2658 
 33   670.0000   233.1369 
 34   670.6250   227.7804 
 35   671.2500   228.4492 
 36   671.8750   225.2195 
 37   672.5000   226.3619 
 38   673.1250   227.5840 
 39   673.7500   224.7236 
 40   674.3750   227.6652 
 41   675.0000   225.0621 
 42   675.6250   225.9987 
 43   676.2500   227.3778 
 44   676.8750   224.2274 
 45   677.5000   227.7015 
 46   678.1250   225.3357 
 47   678.7500   226.0676 
 48   679.3750   227.9841 
 49   680.0000   224.1145 
 50   680.6250   227.4217 
 51   681.2500   225.3735 
 52   681.8750   224.5943 
 53   682.5000   227.1193 
 54   683.1250   223.1494 
 55   683.7500   226.0657 
 56   684.3750   224.9592 
 57   685.0000   223.2241 
 58   685.6250   226.1510 
 59   686.2500   222.5569 
 60   686.8750   223.8949 
 61   687.5000   223.9674 
 62   688.1250   221.9696 
 63   688.7500   226.0262 
 64   689.3750   224.0422 
 65   690.0000   223.6072 
 66   690.6250   224.1153 
 67   691.2500   221.5752 
 68   691.8750   223.8624 
 69   692.5000   223.0653 
 70   693.1250   222.0339 
 71   693.7500   223.5050 
 72   694.3750   222.3051 
 73   695.0000   222.7596 
 74   695.6250   223.6124 
 75   696.2500   222.9528 
 76   696.8750   223.6906 
 77   697.5000   224.5874 
 78   698.1250   223.6214 
 79   698.7500   224.8559 
 80   699.3750   226.1182 
 81   700.0000   224.7046 
 82   700.6250   226.4260 
 83   701.2500   227.1180 
 84   701.8750   226.6770 
 85   702.5000   228.6005 
 86   703.1250   228.8490 
 87   703.7500   231.0971 
 88   704.3750   232.4457 
 89   705.0000   230.9150 
 90   705.6250   233.4050 
 91   706.2500   234.9350 
 92   706.8750   234.5065 
 93   707.5000   236.2179 
 94   708.1250   236.3097 
 95   708.7500   236.5099 
 96   709.3750   238.7479 
 97   710.0000   239.5371 
 98   710.6250   240.8996 
 99   711.2500   242.2342 
100   711.8750   241.7025 
101   712.5000   244.8169 
102   713.1250   243.2958 
103   713.7500   242.9951 
104   714.3750   247.9138 
105   715.0000   245.3901 
106   715.6250   249.4290 
107   716.2500   250.3075 
108   716.8750   246.3369 
109   717.5000   249.8718 
110   718.1250   243.4022 
111   718.7500   232.8616 
112   719.3750   227.3799 
113   720.0000   227.9892 
114   720.6250   232.4522 
115   721.2500   241.0173 
116   721.8750   252.6402 
117   722.5000   256.7761 
118   723.1250   257.5986 
119   723.7500   255.5250 
120   724.3750   262.0568 
121   725.0000   261.8994 
122   725.6250   259.0078 
123   726.2500   263.0434 
124   726.8750   256.5686 
125   727.5000   259.4659 
126   728.1250   257.7852 
127   728.7500   249.8152 
128   729.3750   250.0377 
129   730.0000   247.4312 
130   730.6250   250.0912 
131   731.2500   251.4069 
132   731.8750   254.2616 
133   732.5000   259.6174 
134   733.1250   254.7052 
135   733.7500   259.3446 
136   734.3750   257.5032 
137   735.0000   256.3339 
138   735.6250   259.9852 
139   736.2500   253.9822 
140   736.8750   257.6317 
141   737.5000   257.0453 
142   738.1250   259.4720 
143   738.7500   261.3406 
144   739.3750   257.0415 
145   740.0000   258.1195 
146   740.6250   249.0331 
147   741.2500   243.7284 
148   741.8750   248.6637 
149   742.5000   257.5443 
150   743.1250   263.8818 
151   743.7500   259.1801 
152   744.3750   259.3488 
153   745.0000   259.6173 
154   745.6250   265.7085 
155   746.2500   270.9128 
156   746.8750   267.0902 
157   747.5000   270.9782 
158   748.1250   265.9521 
159   748.7500   268.3239 
160   749.3750   271.1508 
161   750.0000   268.7363 
162   750.6250   271.8393 
163   751.2500   269.5638 
164   751.8750   271.0893 
165   752.5000   269.8434 
166   753.1250   270.7904 
167   753.7500   269.3433 
168   754.3750   264.0003 
169   755.0000   270.2570 
170   755.6250   272.6847 
171   756.2500   275.0008 
172   756.8750   276.3174 
173   757.5000   275.3946 
174   758.1250   280.1199 
175   758.7500   279.4171 
176   759.3750   281.5008 
177   760.0000   280.5660 
178   760.6250   279.9437 
179   761.2500   282.0236 
180   761.8750   281.4833 
181   762.5000   283.7932 
182   763.1250   282.9561 
183   763.7500   283.4110 
184   764.3750   283.5639 
185   765.0000   283.3720 
186   765.6250   285.0237 
187   766.2500   284.2269 
188   766.8750   283.9561 
189   767.5000   283.4021 
190   768.1250   283.0605 
191   768.7500   279.3480 
192   769.3750   278.5116 
193   770.0000   279.5877 
194   770.6250   282.5182 
195   771.2500   285.2854 
196   771.8750   286.2846 
197   772.5000   286.7657 
198   773.1250   286.8444 
199   773.7500   286.7353 
200   774.3750   285.7453 
201   775.0000   281.6584 
202   775.6250   277.4529 
203   776.2500   278.5767 
204   776.8750   275.6142 
205   777.5000   279.7224 
206   778.1250   285.2488 
207   778.7500   282.8429 
208   779.3750   280.6746 
209   780.0000   285.1413 
210   780.6250   287.6330 
211   781.2500   288.0439 
212   781.8750   287.7186 
213   782.5000   287.5811 
214   783.1250   286.2853 
215   783.7500   280.1531 
216   784.3750   272.3540 
217   785.0000   277.5896 
218   785.6250   285.5576 
219   786.2500   287.9889 
220   786.8750   288.5638 
221   787.5000   288.7978 
222   788.1250   289.0202 
223   788.7500   289.2398 
224   789.3750   289.2999 
225   790.0000   289.3083 
226   790.6250   288.4923 
227   791.2500   282.0945 
228   791.8750   277.1707 
229   792.5000   282.7685 
230   793.1250   284.2368 
231   793.7500   279.8636 
232   794.3750   281.4919 
233   795.0000   282.4168 
234   795.6250   273.9725 
235   796.2500   274.8461 
236   796.8750   281.0424 
237   797.5000   279.3183 
238   798.1250   272.2962 
239   798.7500   269.0980 
240   799.3750   279.1470 
241   800.0000   286.6209 
242   800.6250   288.7014 
243   801.2500   289.0005 
244   801.8750   288.5880 
245   802.5000   284.9031 
246   803.1250   277.6885 
247   803.7500   279.8032 
248   804.3750   286.9043 
249   805.0000   289.4550 
250   805.6250   288.8028 
251   806.2500   287.9296 
252   806.8750   289.0345 
253   807.5000   286.4444 
254   808.1250   281.0948 
255   808.7500   284.7028 
256   809.3750   289.5738 
257   810.0000   290.7760 
258   810.6250   290.8081 
259   811.2500   290.8491 
260   811.8750   291.0453 
261   812.5000   290.6310 
262   813.1250   288.5091 
263   813.7500   282.5383 
264   814.3750   280.7063 
265   815.0000   286.0571 
266   815.6250   290.1096 
267   816.2500   290.9543 
268   816.8750   291.2108 
269   817.5000   291.5116 
270   818.1250   291.7229 
271   818.7500   291.6676 
272   819.3750   291.8533 
273   820.0000   291.8282 
274   820.6250   291.8859 
275   821.2500   291.9463 
276   821.8750   291.9247 
277   822.5000   291.8492 
278   823.1250   291.9550 
279   823.7500   292.0360 
280   824.3750   290.7014 
281   825.0000   287.3393 
282   825.6250   288.7888 
283   826.2500   291.2083 
284   826.8750   288.2812 
285   827.5000   283.7598 
286   828.1250   286.4914 
287   828.7500   291.3479 
288   829.3750   292.2931 
289   830.0000   292.5211 
290   830.6250   292.4750 
291   831.2500   292.7479 
292   831.8750   292.6663 
293   832.5000   292.8018 
294   833.1250   292.7035 
295   833.7500   292.8739 
296   834.3750   292.6857 
297   835.0000   291.7490 
298   835.6250   290.7857 
299   836.2500   292.1419 
300   836.8750   292.7885 
301   837.5000   292.8085 
302   838.1250   292.5622 
303   838.7500   292.2453 
304   839.3750   287.7689 
305   840.0000   283.6713 
306   840.6250   288.1708 
307   841.2500   291.0541 
308   841.8750   290.1381 
309   842.5000   291.5963 
310   843.1250   292.7295 
311   843.7500   292.8988 
312   844.3750   292.7920 
313   845.0000   292.7969 
314   845.6250   292.5101 
315   846.2500   292.6625 
316   846.8750   292.6321 
317   847.5000   292.7444 
318   848.1250   292.5006 
319   848.7500   290.4186 
320   849.3750   284.8518 
321   850.0000   286.3631 
322   850.6250   291.1509 
323   851.2500   291.3195 
324   851.8750   285.5270 
325   852.5000   277.9143 
326   853.1250   281.6681 
327   853.7500   286.8233 
328   854.3750   284.1946 
329   855.0000   286.2958 
330   855.6250   291.9029 
331   856.2500   293.2518 
332   856.8750   293.5586 
333   857.5000   293.5134 
334   858.1250   292.8034 
335   858.7500   292.3702 
336   859.3750   292.9561 
337   860.0000   293.2453 
338   860.6250   293.8488 
339   861.2500   293.9025 
340   861.8750   293.9884 
341   862.5000   293.8960 
342   863.1250   293.9911 
343   863.7500   293.8324 
344   864.3750   292.1718 
345   865.0000   287.8358 
346   865.6250   288.0953 
347   866.2500   292.4908 
348   866.8750   293.9999 
349   867.5000   294.1105 
350   868.1250   294.1201 
351   868.7500   294.1593 
352   869.3750   294.1051 
353   870.0000   293.7897 
354   870.6250   290.1769 
355   871.2500   285.9915 
356   871.8750   290.0594 
357   872.5000   293.8257 
358   873.1250   294.2320 
359   873.7500   294.3891 
360   874.3750   294.3789 
361   875.0000   294.4371 
362   875.6250   294.2485 
363   876.2500   294.2983 
364   876.8750   294.3258 
365   877.5000   293.6991 
366   878.1250   289.7318 
367   878.7500   288.3381 
368   879.3750   292.6241 
369   880.0000   294.2684 
370   880.6250   292.9193 
371   881.2500   292.1652 
372   881.8750   293.8225 
373   882.5000   293.6637 
374   883.1250   291.0830 
375   883.7500   288.6694 
376   884.3750   291.3410 
377   885.0000   294.2191 
378   885.6250   294.4427 
379   886.2500   293.1259 
380   886.8750   287.6502 
381   887.5000   286.8531 
382   888.1250   290.6240 
383   888.7500   291.0606 
384   889.3750   292.9886 
385   890.0000   292.9680 
386   890.6250   293.0774 
387   891.2500   292.6723 
388   891.8750   293.9559 
389   892.5000   294.9676 
390   893.1250   295.1560 
391   893.7500   295.1503 
392   894.3750   295.2446 
393   895.0000   295.1558 
394   895.6250   294.9917 
395   896.2500   294.6520 
396   896.8750   294.7813 
397   897.5000   294.3142 
398   898.1250   294.6414 
399   898.7500   295.3347 
400   899.3750   295.5446 
401   900.0000   295.5488 
402   900.6250   295.5966 
403   901.2500   295.6007 
404   901.8750   295.5876 
405   902.5000   295.4337 
406   903.1250   295.5881 
407   903.7500   295.6178 
408   904.3750   295.6304 
409   905.0000   295.2409 
410   905.6250   293.9832 
411   906.2500   292.2633 
412   906.8750   293.5984 
413   907.5000   294.8923 
414   908.1250   292.5656 
415   908.7500   286.7201 
416   909.3750   288.2935 
417   910.0000   293.1221 
418   910.6250   294.1948 
419   911.2500   295.2088 
420   911.8750   295.5117 
421   912.5000   295.7347 
422   913.1250   295.2003 
423   913.7500   293.9413 
424   914.3750   294.0457 
425   915.0000   295.4345 
426   915.6250   295.6797 
427   916.2500   295.8336 
428   916.8750   295.7804 
429   917.5000   295.6747 
430   918.1250   294.1180 
431   918.7500   294.0473 
432   919.3750   295.4817 
433   920.0000   295.9607 
434   920.6250   295.2184 
435   921.2500   292.4099 
436   921.8750   288.4672 
437   922.5000   289.9800 
438   923.1250   294.3231 
439   923.7500   295.7488 
440   924.3750   293.2705 
441   925.0000   289.8425 
442   925.6250   293.0140 
443   926.2500   295.8471 
444   926.8750   296.0291 
445   927.5000   296.1139 
446   928.1250   295.8361 
447   928.7500   294.8907 
448   929.3750   295.3700 
449   930.0000   296.2570 
450   930.6250   296.1763 
451   931.2500   296.2209 
452   931.8750   296.4410 
453   932.5000   296.3760 
454   933.1250   296.4420 
455   933.7500   296.8955 
456   934.3750   296.7545 
457   935.0000   296.5971 
458   935.6250   297.0066 
459   936.2500   296.9327 
460   936.8750   296.4437 
461   937.5000   296.8285 
462   938.1250   296.8657 
463   938.7500   296.6873 
464   939.3750   297.1358 
465   940.0000   296.8114 
466   940.6250   295.2161 
467   941.2500   295.4799 
468   941.8750   296.5257 
469   942.5000   296.6530 
470   943.1250   297.2047 
471   943.7500   296.6313 
472   944.3750   295.2650 
473   945.0000   295.5374 
474   945.6250   296.1356 
475   946.2500   296.1521 
476   946.8750   296.3520 
477   947.5000   293.4333 
478   948.1250   288.2507 
479   948.7500   291.3621 
480   949.3750   295.6147 
481   950.0000   296.9445 
482   950.6250   297.1952 
483   951.2500   296.7437 
484   951.8750   297.4470 
485   952.5000   296.4824 
486   953.1250   294.0388 
487   953.7500   294.6751 
488   954.3750   295.6813 
489   955.0000   293.6558 
490   955.6250   293.3818 
491   956.2500   296.1398 
492   956.8750   297.8115 
493   957.5000   297.8074 
494   958.1250   297.7184 
495   958.7500   297.1443 
496   959.3750   296.0088 
497   960.0000   296.7550 
498   960.6250   297.6754 
499   961.2500   297.8486 
500   961.8750   297.8295 
501   962.5000   298.1006 
502   963.1250   298.0038 
503   963.7500   298.1218 
504   964.3750   297.8911 
505   965.0000   297.5778 
506   965.6250   296.7502 
507   966.2500   295.6537 
508   966.8750   295.6350 
509   967.5000   296.4637 
510   968.1250   297.4678 
511   968.7500   297.4792 
512   969.3750   297.2373 
513   970.0000   297.0557 
514   970.6250   295.4384 
515   971.2500   293.7374 
516   971.8750   294.0440 
517   972.5000   296.4272 
518   973.1250   294.1899 
519   973.7500   292.4619 
520   974.3750   294.4386 
521   975.0000   296.0450 
522   975.6250   292.9910 
523   976.2500   292.7677 
524   976.8750   294.6152 
525   977.5000   294.1044 
526   978.1250   295.7972 
527   978.7500   296.5253 
528   979.3750   296.8902 
529   980.0000   296.9741 
530   980.6250   296.7000 
531   981.2500   296.0702 
532   981.8750   295.9449 
533   982.5000   296.5387 
534   983.1250   296.4222 
535   983.7500   295.4624 
536   984.3750   295.0621 
537   985.0000   295.8708 
538   985.6250   296.1393 
539   986.2500   295.5263 
540   986.8750   295.1998 
541   987.5000   294.9464 
542   988.1250   295.3219 
543   988.7500   294.4268 
544   989.3750   293.6836 
545   990.0000   293.2693 
546   990.6250   293.5626 
547   991.2500   293.3289 
548   991.8750   291.7730 
549   992.5000   291.6932 
550   993.1250   291.3999 
551   993.7500   291.8032 
552   994.3750   289.4550 
553   995.0000   289.3125 
554   995.6250   288.8931 
555   996.2500   290.1406 
556   996.8750   287.8634 
557   997.5000   286.6577 
558   998.1250   285.2380 
559   998.7500   284.9265 
560   999.3750   282.3649 
561   1000.0000   280.4536 
